#
# GBT HI-21cm spectrum from the z=2.347 DLA towards 0438-436.
# The second column is heliocentric frequency, in MHz.
# The third column is velocity, in km/s, relative to z=2.34736
#
1 424.6621090000 -230.1346432052 9.803300
2 424.6499020000 -221.5234145313 -1.352460
3 424.6376040000 -212.8474907530 -6.522440
4 424.6253970000 -204.2352681621 -3.495400
5 424.6131900000 -195.6225503939 4.665580
6 424.6010130000 -187.0305058993 -4.086180
7 424.5888060000 -178.4167988656 -3.609260
8 424.5765990000 -169.8025965267 1.354720
9 424.5643920000 -161.1878988397 7.254180
10 424.5521850000 -152.5727057620 -1.468140
11 424.5400090000 -143.9788976475 -1.388940
12 424.5278020000 -135.3627149184 -1.091060
13 424.5155940000 -126.7453307701 14.649960
14 424.5033870000 -118.1281569198 5.610760
15 424.4912110000 -109.5323728930 -4.291600
16 424.4790040000 -100.9142090500 0.219400
17 424.4667050000 -92.2305917347 -8.120740
18 424.4544980000 -83.6114327332 -4.109920
19 424.4422910000 -74.9917779560 -4.571060
20 424.4301150000 -66.3935190892 2.239340
21 424.4179080000 -57.7728738917 0.522700
22 424.4057010000 -49.1517327903 -5.832940
23 424.3934940000 -40.5300957422 -1.649240
24 424.3812870000 -31.9079627047 -0.557840
25 424.3691100000 -23.3065252704 4.608820
26 424.3569030000 -14.6834013447 -3.718860
27 424.3446960000 -6.0597813013 -10.223360
28 424.3324890000 2.5643349027 -29.255861
29 424.3203120000 11.1677508002 -43.170921
30 424.3080140000 19.8571580233 -32.738499
31 424.2958070000 28.4827654462 -4.939020
32 424.2836000000 37.1088692012 -18.710020
33 424.2713930000 45.7354693312 -20.862459
34 424.2591860000 54.3625658790 -14.329620
35 424.2470090000 62.9689550520 3.440120
36 424.2348020000 71.5970433437 4.622800
37 424.2225950000 80.2256281816 -2.984720
38 424.2103880000 88.8547096087 4.463460
39 424.1982120000 97.4623719966 2.302520
40 424.1860050000 106.0924454692 3.942040
41 424.1737980000 114.7230156595 4.060120
42 424.1615910000 123.3540826103 -1.880280
43 424.1494140000 131.9644327702 -0.638760
44 424.1370850000 140.6827657514 -4.322720
45 424.1249080000 149.2941109403 5.790080
46 424.1127010000 157.9271678863 -2.709860
47 424.1004940000 166.5607218075 8.171160
48 424.0882870000 175.1947727469 4.740300
49 424.0761110000 183.8073924543 -3.464420
50 424.0639040000 192.4424362964 2.391140
51 424.0516970000 201.0779772853 -12.299400
52 424.0394900000 209.7140154639 6.459800
53 424.0273130000 218.3293250620 -3.053020
54 424.0151060000 226.9663565269 -12.958000
