#
# New GBT HI-21cm spectrum from the z=2.0395 DLA towards 0458-020
# The second column is heliocentric frequency, in MHz, while the 
# third column is velocity, in km/s, relative to z=2.03945.
#
1 467.4684000000 -93.0653987397 0.0012500
2 467.4660000000 -91.5267230541 -0.0012500
3 467.4636000000 -89.9880315691 -0.0037500
4 467.4611000000 -88.3852111380 -0.0050000
5 467.4587000000 -86.8464873952 -0.0150000
6 467.4562000000 -85.2436333617 -0.0125000
7 467.4538000000 -83.7048773600 0.0062500
8 467.4514000000 -82.1661055576 0.0150000
9 467.4489000000 -80.5632014613 0.0112500
10 467.4465000000 -79.0243973986 0.0087500
11 467.4440000000 -77.4214596972 -0.0012500
12 467.4416000000 -75.8826233731 -0.0062500
13 467.4391000000 -74.2796520655 -0.0012500
14 467.4367000000 -72.7407834790 -0.0012500
15 467.4343000000 -71.2018990900 0.0062500
16 467.4318000000 -69.5988777143 0.0125000
17 467.4294000000 -68.0599610614 0.0025000
18 467.4269000000 -66.4569060768 -0.0037500
19 467.4245000000 -64.9179571590 -0.0075000
20 467.4221000000 -63.3789924376 -0.0100000
21 467.4196000000 -61.7758873808 -0.0062500
22 467.4172000000 -60.2368903930 0.0012500
23 467.4147000000 -58.6337517248 0.0000000
24 467.4123000000 -57.0947224695 -0.0050000
25 467.4099000000 -55.5556774093 0.0050000
26 467.4074000000 -53.9524886650 0.0112500
27 467.4050000000 -52.4134113359 -0.0012500
28 467.4025000000 -50.8101889775 -0.0012500
29 467.4001000000 -49.2710793784 -0.0187500
30 467.3976000000 -47.6678234050 -0.0112500
31 467.3952000000 -46.1286815348 0.0000000
32 467.3928000000 -44.5895238581 0.0050000
33 467.3903000000 -42.9862178030 0.0050000
34 467.3879000000 -41.4470278538 -0.0025000
35 467.3854000000 -39.8436881810 -0.0050000
36 467.3830000000 -38.3044659582 0.0037500
37 467.3806000000 -36.7652279276 0.0150000
38 467.3781000000 -35.1618381693 0.0100000
39 467.3757000000 -33.6225678637 -0.0075000
40 467.3732000000 -32.0191444850 -0.0175000
41 467.3708000000 -30.4798419032 -0.0050000
42 467.3683000000 -28.8763849031 0.0212500
43 467.3659000000 -27.3370500444 0.0250000
44 467.3635000000 -25.7976993760 0.0112500
45 467.3610000000 -24.1941922849 -0.0012500
46 467.3586000000 -22.6548093380 -0.0112500
47 467.3561000000 -21.0512686228 -0.0137500
48 467.3537000000 -19.5118533962 -0.0300000
49 467.3513000000 -17.9724223589 -0.0762500
50 467.3488000000 -16.3688315487 -0.1325000
51 467.3464000000 -14.8293682303 -0.1937500
52 467.3439000000 -13.2257437934 -0.2512500
53 467.3415000000 -11.6862481929 -0.2887500
54 467.3391000000 -10.1467367802 -0.3000000
55 467.3366000000 -8.5430622445 -0.3150000
56 467.3342000000 -7.0035185483 -0.3412500
57 467.3317000000 -5.3998103832 -0.3475000
58 467.3293000000 -3.8602344023 -0.3162500
59 467.3268000000 -2.2564926069 -0.2725000
60 467.3244000000 -0.7168843403 -0.2362500
61 467.3220000000 0.8227397401 -0.2125000
62 467.3195000000 2.4265316399 -0.1962500
63 467.3171000000 3.9661880074 -0.1937500
64 467.3146000000 5.5700135402 -0.2125000
65 467.3122000000 7.1097021960 -0.2337500
66 467.3098000000 8.6494066667 -0.2175000
67 467.3073000000 10.2532823079 -0.1887500
68 467.3049000000 11.7930190683 -0.1650000
69 467.3024000000 13.3969283451 -0.1237500
70 467.3000000000 14.9366973963 -0.0850000
71 467.2975000000 16.5406403098 -0.0487500
72 467.2951000000 18.0804416528 -0.0225000
73 467.2927000000 19.6202588124 -0.0150000
74 467.2902000000 21.2242518397 -0.0037500
75 467.2878000000 22.7641012927 0.0050000
76 467.2853000000 24.3681279594 0.0062500
77 467.2829000000 25.9080097066 0.0075000
78 467.2805000000 27.4479072718 0.0025000
79 467.2780000000 29.0519840562 -0.0075000
80 467.2756000000 30.5919139172 -0.0137500
81 467.2731000000 32.1960243435 -0.0125000
82 467.2707000000 33.7359865014 -0.0062500
83 467.2682000000 35.3401305707 0.0000000
84 467.2658000000 36.8801250264 -0.0050000
85 467.2634000000 38.4201353017 -0.0112500
86 467.2609000000 40.0243294944 -0.0087500
87 467.2585000000 41.5643720690 -0.0062500
88 467.2560000000 43.1685999074 0.0012500
89 467.2536000000 44.7086747824 0.0000000
90 467.2512000000 46.2487654784 -0.0112500
91 467.2487000000 47.8530434438 -0.0012500
92 467.2463000000 49.3931664417 0.0050000
93 467.2438000000 50.9974780554 -0.0012500
94 467.2414000000 52.5376333562 -0.0012500
95 467.2390000000 54.0778044792 -0.0012500
96 467.2365000000 55.6821662240 -0.0062500
97 467.2341000000 57.2223696514 -0.0112500
98 467.2316000000 58.8267650471 -0.0062500
99 467.2292000000 60.3670007799 0.0025000
100 467.2267000000 61.9714298277 -0.0062500
101 467.2243000000 63.5116978669 -0.0050000
102 467.2219000000 65.0519817300 0.0125000
103 467.2194000000 66.6564609144 0.0175000
104 467.2170000000 68.1967770855 0.0125000
105 467.2145000000 69.8012899245 0.0075000
106 467.2121000000 71.3416384045 0.0062500
107 467.2097000000 72.8820027098 0.0075000
108 467.2072000000 74.4865656893 0.0025000
109 467.2048000000 76.0269623050 0.0050000
110 467.2023000000 77.6315589418 0.0087500
111 467.1999000000 79.1719878689 0.0112500
112 467.1974000000 80.7766181641 0.0075000
113 467.1950000000 82.3170794038 -0.0037500
