#
# GMRT HI-21cm spectrum from the z=0.5247 DLA towards 0827+243. 
# The second column is heliocentric frequency in MHz, while the third
# is velocity, in km/s, relative to z = 0.5247.
#
      1    930.7574125000      270.3856959411   -0.0008731410
      2    930.7731125000      265.3243262565   -0.0011566300
      3    930.7887125000      260.2953637120   -0.0022547100
      4    930.8043125000      255.2665697354   -0.0013371600
      5    930.8199125000      250.2379443180   0.0002454800
      6    930.8356125000      245.1772542973   0.0005603780
      7    930.8512125000      240.1489670535   0.0000636200
      8    930.8668125000      235.1208483436   0.0008011100
      9    930.8824125000      230.0928981590   0.0003299580
     10    930.8981125000      225.0328876652   -0.0002992700
     11    930.9137125000      220.0052755862   0.0002037600
     12    930.9293125000      214.9778320070   -0.0002446710
     13    930.9449125000      209.9505569192   0.0003281480
     14    930.9606125000      204.8912258156   0.0012429900
     15    930.9762125000      199.8642887652   -0.0005846090
     16    930.9918125000      194.8375201808   -0.0023121100
     17    931.0074125000      189.8109200539   -0.0022618000
     18    931.0231125000      184.7522682035   -0.0005633940
     19    931.0387125000      179.7260060459   -0.0000013230
     20    931.0543125000      174.6999123204   0.0000473620
     21    931.0699125000      169.6739870184   0.0018979300
     22    931.0856125000      164.6160142845   0.0020497100
     23    931.1012125000      159.5904268838   -0.0001372410
     24    931.1168125000      154.5650078812   -0.0015064600
     25    931.1324125000      149.5397572683   -0.0002910130
     26    931.1481125000      144.4824635141   -0.0004463580
     27    931.1637125000      139.4575507344   -0.0005700380
     28    931.1793125000      134.4328063189   -0.0005117990
     29    931.1949125000      129.4082302592   -0.0003991610
     30    931.2106125000      124.3516153480   -0.0011270400
     31    931.2262125000      119.3273770535   -0.0023026000
     32    931.2418125000      114.3033070893   -0.0014893600
     33    931.2574125000      109.2794054470   0.0002868480
     34    931.2731125000      104.2234692422   0.0019746700
     35    931.2887125000       99.1999052971   0.0003299580
     36    931.3043125000       94.1765096484   -0.0002446710
     37    931.3199125000       89.1532822877   0.0012429900
     38    931.3356125000       84.0980246526   -0.0005633940
     39    931.3512125000       79.0751349211   -0.0006916450
     40    931.3668125000       74.0524134522   -0.0018708100
     41    931.3824125000       69.0298602373   -0.0004372530
     42    931.3981125000       63.9752810353   0.0002261080
     43    931.4137125000       58.9530653818   0.0001958200
     44    931.4293125000       53.9310179569   0.0016494200
     45    931.4449125000       48.9091387522   -0.0006214360
     46    931.4606125000       43.8552378468   -0.0009935750
     47    931.4762125000       38.8336961355   -0.0017190400
     48    931.4918125000       33.8123226189   -0.0019129600
     49    931.5074125000       28.7911172888   -0.0021981500
     50    931.5231125000       23.7378945434   -0.0031794500
     51    931.5387125000       18.7170266386   -0.0034730400
     52    931.5543125000       13.6963268948   -0.0051864700
     53    931.5699125000   8.6757953035   -0.0059051600
     54    931.5856125000   3.6232505816   -0.0048922300
     55    931.6012125000       -1.3969436521   -0.0039153900
     56    931.6168125000       -6.4169697588   -0.0032094200
     57    931.6324125000      -11.4368277468   -0.0025858100
     58    931.6481125000      -16.4886945815   -0.0014670400
     59    931.6637125000      -21.5082152800   0.0008963190
     60    931.6793125000      -26.5275678851   0.0002291610
     61    931.6949125000      -31.5467524054   -0.0012791300
     62    931.7106125000      -36.5979414895   -0.0007755900
     63    931.7262125000      -41.6167887880   0.0002841800
     64    931.7418125000      -46.6354680271   0.0000076900
     65    931.7574125000      -51.6539792152   -0.0012102300
     66    931.7731125000      -56.7044906850   -0.0014582700
     67    931.7887125000      -61.7226647192   0.0002964170
     68    931.8043125000      -66.7406707278   0.0019978500
     69    931.8199125000      -71.7585087191   0.0026761300
     70    931.8356125000      -76.8083427109   0.0014587400
     71    931.8512125000      -81.8258436162   0.0007104180
     72    931.8668125000      -86.8431765297   0.0004481030
     73    931.8824125000      -91.8603414598   -0.0004603250
     74    931.8981125000      -96.9094981100   -0.0019918000
     75    931.9137125000     -101.9263260218   -0.0018019800
     76    931.9293125000     -106.9429859757   0.0001126000
     77    931.9449125000     -111.9594779798   0.0004677930
     78    931.9606125000     -117.0079574247   0.0012750900
     79    931.9762125000     -122.0241124785   -0.0002287300
     80    931.9918125000     -127.0400996080   -0.0004767420
     81    932.0074125000     -132.0559188217   0.0006857220
     82    932.0231125000     -137.1037211974   -0.0000866740
     83    932.0387125000     -142.1192035285   -0.0015310600
